File name:	ALC030
Date:	2/5/2001
UTM Grid Zone:	10S
"UTM-X, m:"	565370
"UTM-Y, m:"	4177436
Datum:	1927 NAD
"Elevation, m:"	1
"Total depth, m:"	16.5
"Water depth, m:"	0.85
City:	Alameda
County:	Alameda
State:	CA
USGS Quadrangle:	Hunters Point
Cone No.:	660
Source:	USGS
"Surface horiz. offset (seismic source to CPT), m:"	0.96

Depth (m)	Tip Resistance (MN/m2)	Sleeve Friction (kN/m2)	Inclination (degree)	S-wave travel time (ms)
0.05	71.59	131.3	0.04	
0.1	58.32	350.6	0.05	
0.15	42.29	494	0.03	
0.2	40.3	378.9	0.04	
0.25	39.3	356.7	0.05	
0.3	35.89	361.1	0.04	
0.35	34.58	418.2	0.03	
0.4	33.11	391.7	0.05	
0.45	33.63	464.5	0.04	
0.5	34.84	487	0.04	
0.55	32.74	455.4	0.05	
0.6	32.05	457.5	0.05	
0.65	30.66	433.5	0.03	
0.7	29.61	381.3	0.04	
0.75	28.73	222.4	0.04
0.8	28.24	245.6	0.06
0.85	24.31	217.5	0.05
0.9	23.85	227.5	0.04
0.95	22.88	248.8	0.04
1	21.09	272.5	0.05
1.05	19.65	279.2	0.05
1.1	19.1	264.5	0.07
1.15	17.77	247.1	0.07
1.2	17.05	219.1	0.09
1.25	16.28	196.7	0.06
1.3	15.55	179	0.07
1.35	14.55	159	0.07
1.4	13.81	144.3	0.11
1.45	14.2	137.4	0.1
1.5	14.31	145.9	0.1
1.55	13.34	137.4	0.12	
1.6	12.41	115.6	0.16	
1.65	11.97	112.6	0.11	
1.7	11.39	99.4	0.18	
1.75	9.64	124.6	0.16	9	
1.8	7.8	110.9	0.21	
1.85	6.45	75.7	0.21	
1.9	10.09	80.7	0.21	
1.95	11.79	93.7	0.22	
2	12.19	110.5	0.23	
2.05	10.96	111.3	0.28	
2.1	11.12	111.4	0.29	
2.15	11.96	116.8	0.35	
2.2	13	127.9	0.41	
2.25	13.23	136.2	0.34	
2.3	13.18	141.4	0.37	
2.35	12.91	136.9	0.36
2.4	12.98	130.9	0.41
2.45	12.52	125.6	0.42
2.5	12.14	119.5	0.43
2.55	11.98	115.4	0.47
2.6	11.94	108.8	0.45
2.65	12.2	103.3	0.49
2.7	12.12	100.7	0.51
2.75	12.28	94.9	0.45
2.8	11.87	86.2	0.54
2.85	11.85	85.3	0.49
2.9	11.06	88.7	0.57
2.95	10.91	90.9	0.56
3	10.44	86.9	0.65
3.05	10.4	86.4	0.6
3.1	9.88	85.4	0.67
3.15	9.52	82.6	0.68
3.2	9.3	72	0.73
3.25	9.14	67.4	0.75
3.3	8.51	67.4	0.74
3.35	8.29	66.4	0.75
3.4	8.01	63.8	0.85
3.45	7.79	63.1	0.79
3.5	7.56	63.2	0.9
3.55	7.81	64.2	0.88
3.6	7.9	66	0.81
3.65	7.52	61.7	0.79
3.7	7.25	60.3	0.81
3.75	7.54	51.1	0.81	21.89
3.8	6.88	59.2	0.95
3.85	6.53	59.1	0.91
3.9	6.54	57.7	1
3.95	7.08	64.1	0.99	
4	8.08	70.8	1.06	
4.05	7.74	73.1	1.07	
4.1	7.69	73.4	1.07	
4.15	7.73	73.6	1.06	
4.2	8.17	76.9	1.06	
4.25	8.24	82.8	1.07	
4.3	7.93	78.3	1.07	
4.35	8.05	78.1	1.06	
4.4	8.12	78.5	1.06	
4.45	8.53	79.5	1.06	
4.5	7.73	77.1	1.07	
4.55	7.04	72.7	1.06	
4.6	6.47	64.8	1.07	
4.65	5.87	59.2	1.07	
4.7	5.67	58.2	1.08	
4.75	5.8	58.5	1.06
4.8	4.95	54.7	1.43
4.85	3.99	45.7	1.56
4.9	3.85	43.2	1.69
4.95	5.08	49.3	1.64
5	5.35	52.9	1.63
5.05	5.2	51.1	1.78
5.1	5.03	50.8	1.81
5.15	5.17	55.4	1.81
5.2	5.82	60.2	1.8
5.25	6.84	67.7	1.8
5.3	7.32	73.1	1.85
5.35	7.09	72.6	1.87
5.4	6.15	68.6	1.88
5.45	5.77	67.5	1.89
5.5	5.68	63.9	1.89
5.55	5.72	66.5	1.89	
5.6	5.79	68.7	1.9	
5.65	5.93	71.5	1.97	
5.7	5.78	68.6	1.98	
5.75	6.23	74.7	1.97	36.14
5.8	5.99	73.4	2.01	
5.85	6.53	70.7	2.12	
5.9	6.56	79	2.16	
5.95	5.42	86.3	2.17	
6	3.26	105	2.34	
6.05	1.25	67.2	2.14	
6.1	0.58	25.4	2.24	
6.15	0.61	2.9	1.7	
6.2	0.57	14.1	1.91	
6.25	1.12	10.6	2.22	
6.3	1.86	12.7	2.21	
6.35	0.8	14	2.3	
6.4	0.7	11.3	2.12	
6.45	0.55	10.1	2.37	
6.5	0.5	7.4	2.73	
6.55	0.53	4.6	2.71	
6.6	0.42	3.6	2.62	
6.65	0.48	6.1	2.63	
6.7	0.42	7.9	2.65	
6.75	0.64	9.4	2.66	42.33
6.8	0.74	14.5	2.67	
6.85	0.41	14.6	2.69	
6.9	0.64	20.9	2.63	
6.95	0.49	24.1	2.8	
7	0.32	18.5	2.81	
7.05	0.48	12	2.81	
7.1	0.35	11.4	2.82	
7.15	0.35	13.9	2.83
7.2	0.38	14.9	2.82
7.25	0.48	12.9	2.82
7.3	0.62	16.7	2.83
7.35	0.54	20.8	2.84
7.4	0.57	22.3	2.92
7.45	0.69	18.4	2.92
7.5	0.47	15.5	2.93
7.55	0.41	13.3	2.93
7.6	0.4	12	2.93
7.65	0.33	10.1	2.93
7.7	0.25	10.4	2.94
7.75	0.32	9.6	2.93	51.25
7.8	0.37	7.8	2.94
7.85	0.61	9.7	2.93
7.9	0.39	9	3.18
7.95	0.44	7	3.19	
8	0.48	4.9	3.19	
8.05	0.52	4.5	3.2	
8.1	0.34	3.4	3.21	
8.15	0.3	3.9	3.22	
8.2	0.29	5.1	3.25	
8.25	0.35	5.1	3.4	
8.3	0.55	3.6	3.39	
8.35	0.6	3.9	3.4	
8.4	0.23	4	3.42	
8.45	0.26	3.1	3.52	
8.5	0.31	3.2	3.52	
8.55	0.3	5.3	3.53	
8.6	0.36	3.8	3.53	
8.65	0.56	5.5	3.54	
8.7	0.35	5.7	3.55	
8.75	0.65	4.3	3.55
8.8	0.62	6.3	3.55
8.85	0.23	-0.7	3.56
8.9	0.62	3	3.56
8.95	0.12	4.8	3.77
9	0.34	3.3	3.78
9.05	0.52	3.5	3.8
9.1	0.42	5.2	3.57
9.15	0.38	5.5	3.57
9.2	0.52	8.3	3.58
9.25	1.07	17.5	3.8
9.3	2.17	33.1	3.82
9.35	3.71	68.8	3.93
9.4	2.26	62.4	3.97
9.45	1.43	44	4.03
9.5	1.99	43.5	4.04
9.55	1.08	30	4.04	
9.6	1	18.3	4.05	
9.65	0.48	13.8	4.14	
9.7	0.59	8.3	4.15	
9.75	1.36	17.7	4.14	67.75	
9.8	0.77	26.2	4.22	
9.85	1.32	29.1	4.25	
9.9	2.43	63.8	4.26	
9.95	1.66	19.4	4.27	
10	1.29	59.7	4.35	
10.05	0.38	45.6	4.35	
10.1	1.36	42.2	4.37	
10.15	1.27	36.1	4.38	
10.2	2.06	55.1	4.44	
10.25	3.59	79.6	4.45	
10.3	4.11	82.4	4.52	
10.35	3.87	73.8	4.54
10.4	3.31	81.5	4.56
10.45	2.25	66.1	4.55
10.5	0.98	37.2	4.56
10.55	0.97	39.4	4.57
10.6	1.42	35.8	4.58
10.65	0.63	26.2	4.62
10.7	0.58	11	4.62
10.75	0.48	5.6	4.62
10.8	0.43	5.1	4.65
10.85	0.6	6.9	4.66
10.9	0.47	10.5	4.67
10.95	0.58	12.6	4.66
11	1.12	0.1	4.67
11.05	1.35	9	4.66
11.1	0.52	8.5	4.84
11.15	0.69	8.2	4.84
11.2	0.56	7	4.84
11.25	0.52	5.2	4.85
11.3	0.52	6.7	4.85
11.35	0.5	6.7	4.86
11.4	0.7	2.7	4.89
11.45	0.61	2.4	4.93
11.5	0.31	13.7	4.92
11.55	0.9	65.8	4.94
11.6	2.36	88.6	5.2
11.65	4.89	81.5	5.24
11.7	3.72	223.9	5.24
11.75	5.79	253	5.15	78.17
11.8	6.15	202.4	5.2
11.85	5.39	209.4	5.23
11.9	5.45	202.3	5.31
11.95	5.98	318.5	5.34	
12	6.35	325.2	5.36	
12.05	7.04	339.9	5.38	
12.1	7.33	340	5.4	
12.15	8.25	409.6	5.49	
12.2	9	471.9	5.51	
12.25	9.89	465.3	5.52	
12.3	9.87	417.3	5.51	
12.35	8.87	441.4	5.51	
12.4	8.96	451.8	5.52	
12.45	9.17	343.5	5.54	
12.5	6.88	215.8	5.61	
12.55	5.02	112.2	5.66	
12.6	4.18	61.3	5.71	
12.65	3.53	34.8	5.72	
12.7	3.03	27.5	5.72	
12.75	2.89	48.7	5.72
12.8	2.88	35.9	5.82
12.85	2.7	25.4	5.82
12.9	2.62	23.7	5.82
12.95	3.06	27.5	5.82
13	2.96	2.4	5.82
13.05	3.04	29.6	5.82
13.1	1.61	25.7	5.95
13.15	3.52	41.9	5.88
13.2	3.46	57	5.89
13.25	4.82	141.2	5.9
13.3	5.86	243.4	5.91
13.35	7.44	281.1	5.91
13.4	6.89	183.6	5.91
13.45	5.86	34.1	5.91
13.5	3.79	18	6.04
13.55	3.34	14.4	6.06	
13.6	3.21	8.8	6.07	
13.65	3.24	6.9	6.16	
13.7	3.19	18.2	6.31	
13.75	3.57	24.3	6.31	84.42	
13.8	3.7	23.3	6.34	
13.85	3.68	21.5	6.33	
13.9	3.57	17.2	6.34	
13.95	3.47	85.1	6.42	
14	3.64	97.5	6.48	
14.05	4.5	81.4	6.6	
14.1	4.52	45.8	6.49	
14.15	4.85	55.1	6.6	
14.2	4.64	151.1	6.61	
14.25	5.48	263.5	6.62	
14.3	6.62	314.6	6.63	
14.35	6.4	244.2	6.71
14.4	5.87	221.2	6.76
14.45	5.63	288.8	6.83
14.5	7.79	372.2	6.84
14.55	8.03	405.4	6.85
14.6	7.11	337.8	6.94
14.65	5.67	212.3	6.95
14.7	5.5	275.2	7.07
14.75	7.65	509	7.08
14.8	11.31	552.6	7.08
14.85	9.21	494.1	7.52
14.9	9.83	325.8	7.61
14.95	7.49	290.2	7.64
15	6.55	323	7.82
15.05	8.05	365.3	7.91
15.1	7.05	331.1	8.04
15.15	4.96	253.1	8.13
15.2	5.62	177.3	8.15
15.25	6.23	174.8	8.16
15.3	5.45	223.6	8.16
15.35	5.22	258.2	8.14
15.4	5.45	249.5	8.13
15.45	5.63	230.3	8.14
15.5	5.84	226.1	8.16
15.55	6.96	268	8.16
15.6	7.8	327.5	8.19
15.65	8.68	387.3	8.22
15.7	10.77	504.5	8.23
15.75	11.86	625.7	8.23	89.69
15.8	12.71	713.3	8.23
15.85	13.07	742.3	8.26
15.9	13.21	676.6	8.29
15.95	12.7	814.4	8.28	
16	11.79	728.3	8.28	
16.05	13.17	776.3	8.32	
16.1	18.19	1112.9	8.25	
16.15	28.3	1148.1	8.24	
16.2	31.38	1217.7	8.38	
16.25	30.17	1084.1	8.42	91.21
16.3	35.36	969.8	8.43	
16.35	35.66	663.2	8.49	
16.4	35.03	697	8.5	
16.45	33.92	-32768	8.47	
16.5	32.23	-32768	8.7	
