File name:	ALC028
Date:	2/5/2001
UTM Grid Zone:	10S
"UTM-X, m:"	567259
"UTM-Y, m:"	4176848
Datum:	1927 NAD
"Elevation, m:"	1
"Total depth, m:"	16
"Water depth, m:"	1.1
City:	Alameda
County:	Alameda
State:	CA
USGS Quadrangle:	San Leandro
Cone No.:	660
Source:	USGS
"Surface horiz. offset (seismic source to CPT), m:"	0.96

Depth (m)	Tip Resistance (MN/m2)	Sleeve Friction (kN/m2)	Inclination (degree)	S-wave travel time (ms)
0.05	0.85	-32768	0.05	
0.1	77.24	879.2	0.43	
0.15	57.3	566.7	0.35	
0.2	43.81	459	0.45	
0.25	40.54	402	0.5	
0.3	44.15	394.9	0.73	
0.35	44.48	306.1	0.79	
0.4	38.7	314.4	0.88	
0.45	27.57	330.8	1.02	
0.5	17.39	358.9	1.05	
0.55	14.25	309.6	1.1	
0.6	10.61	153.4	1.18	
0.65	10.21	176.7	1.24	
0.7	6.08	159.2	1.31	
0.75	6.85	117.7	1.34
0.8	5.25	83.4	1.35
0.85	3.99	88.1	1.35
0.9	2.77	53.5	1.36
0.95	0.82	30.3	1.37
1	0.73	6.4	1.39
1.05	0.71	6.2	1.43
1.1	0.63	7	1.46
1.15	0.63	6.3	1.48
1.2	0.52	5.9	1.48
1.25	0.54	6.1	1.51
1.3	0.56	7.2	1.53
1.35	0.52	6.4	1.61
1.4	0.42	7.2	1.63
1.45	0.41	7.3	1.64
1.5	0.33	7.9	1.68
1.55	0.36	8.7	1.71	
1.6	0.38	9	1.72	
1.65	0.35	8.3	1.72	
1.7	0.35	9.8	1.73	
1.75	0.04	9.1	1.83	11.02
1.8	0.16	9.1	1.36	
1.85	0.18	9	1.79	
1.9	0.17	9.5	1.87	
1.95	0.19	10.1	1.88	
2	0.2	11.1	1.87	
2.05	0.12	11.2	1.87	
2.1	0.1	9.1	1.88	
2.15	0.17	7.3	1.88	
2.2	0.12	7.1	1.88	
2.25	-0.03	6.8	1.89	
2.3	0.08	7.7	1.89	
2.35	0.05	7.9	1.89
2.4	0.08	8.2	1.89
2.45	0.09	7.6	1.9
2.5	0.11	5.6	1.91
2.55	0.18	5.8	1.9
2.6	0.15	4.6	1.93
2.65	0.14	5.2	1.93
2.7	0.31	5.1	1.93
2.75	0.43	3.7	1.92
2.8	0.29	3.9	1.93
2.85	0.38	4.7	1.94
2.9	0.29	5	1.93
2.95	0.47	5.4	1.92
3	0.75	6.1	1.94
3.05	0.96	6.2	1.94
3.1	1.27	7.7	1.93
3.15	1.73	11	1.93
3.2	2.34	9.6	1.93
3.25	3.17	8.8	1.94
3.3	3.72	9.4	1.94
3.35	3.96	10.6	1.93
3.4	4.02	18.6	1.93
3.45	3.63	23	1.94
3.5	2.74	15.1	1.93
3.55	1.87	11.5	2.33
3.6	1.52	14.6	2.33
3.65	1.18	13.4	2.34
3.7	1.15	12.2	2.34
3.75	0.76	12.6	2.35	35.96
3.8	0.85	3.4	2.34
3.85	0.97	12.4	2.34
3.9	0.33	15.2	2.35
3.95	0.95	14.3	2.36	
4	0.94	17	2.35	
4.05	1.15	25.7	2.38	
4.1	1.63	22.7	2.47	
4.15	1.86	20.7	2.5	
4.2	1.63	26.9	2.51	
4.25	1.64	26.8	2.51	
4.3	1.44	29.5	2.52	
4.35	1.47	25.5	2.52	
4.4	1.24	34.4	2.75	
4.45	2.68	48.5	2.74	
4.5	4.17	78.2	2.68	
4.55	5.13	106.5	2.67	
4.6	5.59	122.4	2.73	
4.65	6.06	148.9	2.77	
4.7	6.44	182.3	2.83	
4.75	7.67	214.9	2.92
4.8	8.93	180.3	3.07
4.85	10.21	122.9	3.1
4.9	10.55	190.6	3.1
4.95	10.95	299.1	3.09
5	10.72	342.8	3.23
5.05	9.86	348.1	3.23
5.1	8.03	316.2	3.24
5.15	7.35	285.5	3.23
5.2	6.13	120.7	3.22
5.25	4.8	41.7	3.23
5.3	3.23	23.6	3.23
5.35	2.49	24	3.31
5.4	2.32	18.5	3.31
5.45	2.52	11.1	3.31
5.5	1.87	11.1	3.32
5.55	1.77	7.2	3.33	
5.6	1.62	7.7	3.33	
5.65	1.67	6.6	3.34	
5.7	1.57	7.6	3.39	
5.75	1.79	10.8	3.39	45.58
5.8	1.92	16.5	3.4	
5.85	2.55	19	3.39	
5.9	2.7	62.1	3.39	
5.95	2.66	80.3	3.4	
6	3.52	55.5	3.44	
6.05	3.65	52.4	3.41	
6.1	3.19	78.8	3.41	
6.15	3.73	84.2	3.4	
6.2	3.67	20.9	3.4	
6.25	2.5	11.5	3.4	
6.3	1.67	11.1	3.41	
6.35	1.73	7.3	3.44
6.4	1.62	5.8	3.47
6.45	1.43	5.9	3.48
6.5	1.47	5.6	3.49
6.55	1.45	8.8	3.53
6.6	1.31	13	3.6
6.65	1.34	10.8	3.61
6.7	1.4	7	3.63
6.75	1.52	9.6	3.63
6.8	1.54	6.8	3.64
6.85	1.68	7.1	3.64
6.9	1.71	15.3	3.65
6.95	2.1	23.2	3.69
7	2.85	47.1	3.75
7.05	4.08	76.8	3.76
7.1	6.06	18.6	3.76
7.15	6.22	27	3.79
7.2	4.21	72.5	3.86
7.25	4.71	157.9	3.89
7.3	5.47	230	3.9
7.35	6.25	277.3	3.98
7.4	6.62	309.9	4
7.45	6.72	345	4.03
7.5	7.4	351.8	4.07
7.55	7.63	411.6	4.07
7.6	7.68	456.9	4.08
7.65	8.66	436.8	4.08
7.7	7.39	374.5	4.08
7.75	6	318.2	4.07	54.8
7.8	6.38	273.4	4.08
7.85	5.82	286.3	4.12
7.9	5.71	286	4.13
7.95	7.45	354.6	4.24	
8	7.93	387.3	4.27	
8.05	8.36	415.6	4.31	
8.1	8.27	403.1	4.31	
8.15	9.05	412.5	4.38	
8.2	8.65	443	4.4	
8.25	9.5	489.4	4.51	
8.3	9.9	529.8	4.52	
8.35	10.15	563.1	4.58	
8.4	11.45	530.5	4.69	
8.45	12.28	500.5	4.69	
8.5	13.66	545	4.75	
8.55	13.4	596.8	4.79	
8.6	13.08	675.9	4.83	
8.65	15.81	726.8	4.83	
8.7	17.78	765.2	4.96	
8.75	19.63	797.4	5.02
8.8	19.87	808.5	5.08
8.85	19.29	759.8	5.23
8.9	19.48	680.5	5.29
8.95	20.33	554.7	5.27
9	20.75	578.9	5.27
9.05	20.38	565	5.25
9.1	21.26	594.7	5.26
9.15	23.67	621.5	5.61
9.2	25.64	636.8	5.32
9.25	24.87	555.5	5.33
9.3	23.57	493.6	5.32
9.35	22.78	484.2	5.32
9.4	22.47	498.2	5.38
9.45	22.51	538.2	5.39
9.5	21.67	573.4	5.37
9.55	21.14	609.6	5.35	
9.6	20.93	598.8	5.31	
9.65	21.28	563.5	5.31	
9.7	18.73	477.9	5.3	
9.75	15.81	396.7	5.32	61.58
9.8	14.14	388.3	5.32	
9.85	13.07	423.6	5.36	
9.9	12.98	455.2	5.36	
9.95	13.33	406.9	5.35	
10	13.45	448.1	5.35	
10.05	13.12	469.6	5.32	
10.1	12.82	476.5	5.32	
10.15	13.81	445	5.3	
10.2	14.93	383.4	5.29	
10.25	15.43	363	5.35	
10.3	15.62	495.2	5.34	
10.35	15.56	675.2	5.34
10.4	15.72	800.6	5.33
10.45	15.47	844.3	5.58
10.5	15.79	862	5.47
10.55	15.72	854.5	5.22
10.6	16.15	866.3	5.37
10.65	15.72	839.2	4.96
10.7	15.28	799	4.87
10.75	17.12	731.5	5.59
10.8	19.42	670.3	5.34
10.85	22.21	599.6	5.83
10.9	25.64	478.3	5.64
10.95	27.97	330.6	5.39
11	27.5	296.3	5.54
11.05	18.34	267	5.52
11.1	10.52	263.3	5.49
11.15	6.45	209.2	5.44
11.2	4.41	158	6.27
11.25	3.99	72.9	4.95
11.3	4.54	77.8	4.91
11.35	5.24	162	6.8
11.4	4.66	192.8	5.31
11.45	3.23	137.5	5.69
11.5	2.95	101.2	5.34
11.55	2.35	91.7	5.77
11.6	2.56	119.8	5.39
11.65	3.07	177.9	6.08
11.7	7.54	163.5	6.26
11.75	16.05	155	6.3	66.95
11.8	17.27	147.1	6.49
11.85	17.19	98.4	6.48
11.9	16.81	111.5	6.49
11.95	15.81	69.8	6.64	
12	14.93	107	6.63	
12.05	16.25	109.6	6.67	
12.1	18.42	194.4	6.72	
12.15	16.19	355.2	6.81	
12.2	10.65	498.8	6.84	
12.25	12.57	563.6	6.91	
12.3	18.69	568.3	7	
12.35	20.59	502	7.02	
12.4	22.14	429.9	7.03	
12.45	21.57	333	7.06	
12.5	20.01	314	7.11	
12.55	18.04	307.6	7.12	
12.6	14.76	120.3	7.13	
12.65	9.42	154.1	7.13	
12.7	6.02	274.4	7.15	
12.75	11.15	423	7.18
12.8	16.87	513.5	7.22
12.85	18.27	441.9	7.24
12.9	18.42	143.8	7.26
12.95	18.5	315.6	7.33
13	8.89	355.4	7.34
13.05	18.3	284	7.34
13.1	16.29	229.1	7.35
13.15	12.48	270.5	7.38
13.2	8.5	387.4	7.34
13.25	7.18	467.8	7.37
13.3	9.31	510.4	7.33
13.35	11.15	486.5	7.52
13.4	12.72	399	7.28
13.45	11.03	332.1	6.63
13.5	5.85	187	7.27
13.55	3.41	138.6	7.35	
13.6	2.62	110.2	7.52	
13.65	2.53	119.4	7.17	
13.7	2.5	107	7.56	
13.75	2.52	106.7	7.54	73.07	
13.8	2.45	110.7	7.54	
13.85	2.48	109.5	7.53	
13.9	2.42	94.1	7.53	
13.95	2.32	88.6	7.53	
14	2.37	93.8	7.54	
14.05	2.19	92.1	7.54	
14.1	2.13	85.5	7.55	
14.15	1.94	72.7	7.54	
14.2	1.76	69.5	7.55	
14.25	1.87	67.8	7.54	
14.3	1.92	84.5	7.54	
14.35	2.11	99.6	7.54
14.4	2.07	99.6	7.54
14.45	2.03	91.5	7.55
14.5	1.96	94.9	7.57
14.55	2.08	97.1	7.57
14.6	2.06	96.3	7.57
14.65	2.04	99.5	7.58
14.7	2.19	130	7.6
14.75	2.79	167.9	7.61
14.8	2.81	187.7	7.69
14.85	2.56	156	7.68
14.9	2.51	144.5	7.71
14.95	2.48	127.5	7.73
15	2.35	124.5	7.77
15.05	2.2	114.3	7.77
15.1	2.01	99.5	7.88
15.15	1.81	94.9	7.79
15.2	1.4	72.5	7.78
15.25	1.25	52.9	7.79
15.3	1.03	34.7	7.79
15.35	0.99	24.1	7.82
15.4	1	16.6	7.83
15.45	1.07	15.5	7.85
15.5	1.08	17.4	7.86
15.55	0.99	16.3	7.88
15.6	1.16	17.8	7.92
15.65	1.22	19.6	7.93
15.7	1.26	24.8	8.03
15.75	1.41	35.4	8.04	83.77
15.8	1.47	41	8.06
15.85	1.44	40.2	8.06
15.9	1.48	32.8	8.07
15.95	1.35	-32768	8.07	
16	1.32	-32768	8.09	
