File name:	ALC029
Date:	2/5/2001
UTM Grid Zone:	10S
"UTM-X, m:"	567128
"UTM-Y, m:"	4176125
Datum:	1927 NAD
"Elevation, m:"	3
"Total depth, m:"	14.75
"Water depth, m:"	1.9
City:	Alameda
County:	Alameda
State:	CA
USGS Quadrangle:	San Leandro
Cone No.:	660
Source:	USGS
"Surface horiz. offset (seismic source to CPT), m:"	0.96

Depth (m)	Tip Resistance (MN/m2)	Sleeve Friction (kN/m2)	Inclination (degree)	S-wave travel time (ms)
0.05	69.76	265.3	0.05	
0.1	35.45	183.6	0.04	
0.15	27.56	115.2	0.06	
0.2	21.32	86.1	0.06	
0.25	17.18	95.6	0.04	
0.3	12.05	130.2	0.05	
0.35	10.24	132.2	0.04	
0.4	9.55	142.1	0.03	
0.45	12.21	128.8	0.05	
0.5	14.9	146.5	0.04	
0.55	18.95	190.6	0.05	
0.6	20.85	245.7	0.04	
0.65	22.02	295.1	0.05	
0.7	21.73	229.8	0.04	
0.75	20.71	268	0.05
0.8	11.3	285	0.05
0.85	18.36	279.8	0.03
0.9	17.03	261.4	0.03
0.95	15.64	240.9	0.05
1	14.26	212.1	0.04
1.05	12.95	186.3	0.05
1.1	11.68	164.8	0.04
1.15	10.35	140.6	0.04
1.2	9.27	117.5	0.05
1.25	8.14	97.5	0.03
1.3	7.38	76.8	0.03
1.35	6.4	57.4	0.04
1.4	5.56	39.3	0.05
1.45	5.08	26.2	0.03
1.5	4.52	20	0.04
1.55	4.13	15.7	0.04	
1.6	3.87	9.4	0.05	
1.65	3.8	10.8	0.03	
1.7	3.81	15.7	0.05	
1.75	3.27	13.8	0.06	11.02	
1.8	2.92	28.5	0.05	
1.85	2.75	69	0.05	
1.9	2.46	84.8	0.05	
1.95	1.56	54	0.04	
2	1.05	23.4	0.05	
2.05	1.1	13.7	0.05	
2.1	1.37	46.5	0.05	
2.15	3.73	93.8	0.04	
2.2	6.18	162	0.07	
2.25	7.33	246	0.07	
2.3	7.64	250.6	0.09	
2.35	6.32	239.4	0.12
2.4	6.13	230.5	0.16
2.45	6.56	260.2	0.2
2.5	6.36	293.5	0.27
2.55	8.08	367.1	0.34
2.6	8.43	416.8	0.44
2.65	9.63	451.1	0.47
2.7	12.72	540.5	0.58
2.75	15.19	475.7	0.64
2.8	15.21	542.8	0.67
2.85	15.54	549.7	0.79
2.9	14.86	544.5	0.71
2.95	15.67	500.6	0.71
3	16.77	423.6	0.72
3.05	17.27	378.3	0.91
3.1	16.74	356.9	0.78
3.15	16	325.4	0.97
3.2	14.6	224.4	0.79
3.25	12.98	241.9	1
3.3	12.58	233.3	1.2
3.35	12.33	219.3	1.18
3.4	11.57	203.6	0.85
3.45	11.45	207.6	1
3.5	12.09	177.6	1.12
3.55	13.42	136.9	1.11
3.6	14.44	139.5	1.18
3.65	15.18	142.7	1.2
3.7	15.84	169.1	1.2
3.75	16.37	128.3	1.22	19.52
3.8	16.76	220.4	1.24
3.85	17.05	254.1	1.36
3.9	17.6	234.7	1.35
3.95	18.47	205.4	1.35	
4	18.78	176.8	1.37	
4.05	18.36	174.3	1.4	
4.1	17	202.2	1.42	
4.15	15.5	248.9	1.43	
4.2	13.64	255.7	1.43	
4.25	12.44	209.4	1.45	
4.3	12.79	240.5	1.58	
4.35	13.61	261.4	1.53	
4.4	13.99	190.2	1.79	
4.45	12.17	163.3	1.36	
4.5	10.58	181.2	1.4	
4.55	10.5	211.1	1.71	
4.6	12.47	282.1	1.59	
4.65	14.06	329.5	1.65	
4.7	15.47	339.3	1.86	
4.75	16.22	256.8	1.7
4.8	17.47	250	1.71
4.85	15.69	267.2	1.87
4.9	18.37	171.8	1.85
4.95	19.12	230.8	1.88
5	19.61	281.3	1.88
5.05	20.66	294.9	1.88
5.1	22.56	317.9	1.95
5.15	24.97	365.6	1.97
5.2	26.02	367.5	2.02
5.25	25.56	420.1	2.07
5.3	28.02	574.1	2.07
5.35	32.09	663.4	2.16
5.4	33.39	635.4	2.18
5.45	34.05	658.1	2.2
5.5	33.07	650.7	2.28
5.55	31.39	606.8	2.32	
5.6	29.21	530.5	2.34	
5.65	27.29	483.7	2.36	
5.7	25.35	485.5	2.41	
5.75	23.24	479	2.34	27.84	
5.8	22.11	307.5	2.42	
5.85	20.61	372	2.87	
5.9	19.63	370.2	2.56	
5.95	19.43	260.5	2.65	
6	20.16	308.9	2.51	
6.05	20.63	245.4	2.45	
6.1	20.34	217.2	2.66	
6.15	19.4	152.4	2.71	
6.2	18.17	189.3	2.52	
6.25	17.33	227.4	2.55	
6.3	16.99	219.1	2.68	
6.35	14.7	295.3	2.73
6.4	12.49	380	2.5
6.45	13.21	390	2.8
6.5	12.64	222.8	3.17
6.55	12.99	228.6	3.46
6.6	13.09	196.1	2.77
6.65	12.79	197.9	2.83
6.7	14.58	182.4	2.78
6.75	16.19	155	3.09
6.8	17.07	145.2	3.04
6.85	17.03	169.5	3.06
6.9	16.97	172.3	3.09
6.95	17.24	157.8	3.11
7	17.42	173.7	3.11
7.05	17.45	172	3.12
7.1	17.75	172.6	3.14
7.15	17.85	194.8	3.15
7.2	16.36	185.3	3.19
7.25	15.87	144.9	3.11
7.3	16.1	126.7	3.1
7.35	16.38	141.2	3.23
7.4	17.94	147.3	3.17
7.45	19.24	140	3.09
7.5	20.01	161.5	3.29
7.55	20.37	209.8	3.35
7.6	20.59	255.8	3.36
7.65	20.41	300.3	3.37
7.7	20.25	319	3.47
7.75	20.44	274.3	3.45	36.29
7.8	20.51	259.1	3.49
7.85	20.3	278.4	3.54
7.9	19.9	274.4	3.56
7.95	20	297.1	3.58	
8	20.48	302.1	3.6	
8.05	20.67	328.9	3.66	
8.1	19.13	350.6	3.85	
8.15	16.97	305.6	4.03	
8.2	17.13	269	3.44	
8.25	17.54	261.6	3.31	
8.3	17.3	255.4	2.88	
8.35	16.35	254.7	3.37	
8.4	16.01	256.1	3.83	
8.45	17.33	250.5	3.72	
8.5	18.41	279.6	3.61	
8.55	18.96	290.3	3.67	
8.6	19.47	308.6	3.42	
8.65	19.96	328.7	3.97	
8.7	20.69	329.3	4.26	
8.75	20.37	337.7	3.76
8.8	19.58	316.2	3.87
8.85	19.58	296.4	3.48
8.9	19.27	286.8	4.26
8.95	18.19	253.2	3.77
9	17.73	246	4.48
9.05	17.37	256.2	3.99
9.1	17.74	282.2	4.04
9.15	18.25	285.3	4.19
9.2	17.64	236	4.48
9.25	15.38	281.1	4.24
9.3	13.36	300.9	3.93
9.35	13.91	254.3	3.85
9.4	14.95	322.1	4.1
9.45	20.14	480.5	3.92
9.5	24.47	609.5	3.9
9.55	24.99	606.3	4.2	
9.6	25.14	600.3	4.43	
9.65	28.57	617.6	4.35	
9.7	29.87	568.8	4.25	
9.75	27.84	511	4.29	45.73	
9.8	23.71	442.6	3.82	
9.85	21	480.5	4.73	
9.9	23.32	577.5	4.19	
9.95	29.5	450.5	4.49	
10	26.85	470.2	4.5	
10.05	24.47	518.2	4.15	
10.1	21.31	483.8	3.98	
10.15	12.01	149.2	4.28	
10.2	6.77	22.1	4.46	
10.25	4.19	11.6	4.22	
10.3	3.58	15.5	4.48	
10.35	3.76	17.4	3.97
10.4	5.35	29.3	4.68
10.45	5.29	45.6	4.43
10.5	5.45	76.8	4.4
10.55	5.71	71.5	4.4
10.6	5.93	100.8	4.26
10.65	5.97	158.9	4.3
10.7	6.21	231.9	4.47
10.75	7.03	106.4	4.1
10.8	7.11	343.8	4.43
10.85	4.58	302.4	4.62
10.9	6.76	162.6	4.38
10.95	5.23	85.1	4.53
11	5.1	119.4	3.86
11.05	6.12	206.9	4.79
11.1	6.84	313.7	5.14
11.15	7.56	395.2	4.75
11.2	7.79	435.9	4.9
11.25	7.36	419.7	5.04
11.3	6.55	368.9	4.81
11.35	5.72	300.6	4.93
11.4	5.63	330.3	4.96
11.45	6.68	399.8	4.98
11.5	9.74	499.9	5.05
11.55	12.79	517.2	5.06
11.6	15.38	473.9	5.12
11.65	17.37	447.4	5.17
11.7	18.16	490.5	5.18
11.75	18.6	559.2	5.19	51.73
11.8	18.5	526.3	5.26
11.85	18.21	497.5	5.27
11.9	18.41	509.8	5.37
11.95	19.29	396.4	5.37	
12	19.28	476.6	5.37	
12.05	18.49	579.5	5.4	
12.1	17.85	623.4	5.46	
12.15	18.92	598.2	4.77	
12.2	19.74	527.1	5.35	
12.25	19.04	458.5	5.31	
12.3	17.41	440.7	5.4	
12.35	14.84	454.5	5.44	
12.4	13.5	467.6	5.54	
12.45	14.34	471.2	5.95	
12.5	14.96	422.1	5.65	
12.55	14.14	230.7	5.74	
12.6	11.77	215.2	5.49	
12.65	10.8	180.2	5.2	
12.7	10.52	162.3	6.24	
12.75	10.16	213.9	5.56
12.8	10.36	288.2	5.54
12.85	12.7	383.8	5.49
12.9	16.18	472.8	5.99
12.95	19.59	510.8	5.58
13	22.21	477.6	5.68
13.05	24.68	481.1	5.52
13.1	27.03	493.9	5.9
13.15	27.75	498.3	6.02
13.2	26.3	557.9	5.97
13.25	24.61	641.7	5.96
13.3	24.27	650.8	5.97
13.35	24.25	654.6	5.81
13.4	24.58	651.3	6.03
13.45	25.33	618.8	5.85
13.5	24.44	573.6	5.8
13.55	21.64	604.9	6.33	
13.6	21.08	705.9	6.39	
13.65	24.17	733.2	6	
13.7	26.56	668.4	5.81	
13.75	27.38	576.1	5.71	58.68	
13.8	28.25	583.3	5.97	
13.85	29.67	496.8	6.41	
13.9	29.96	487.1	6.04	
13.95	28.41	212.1	6.28	
14	28.02	419.4	6.28	
14.05	15.21	427.5	6.27	
14.1	27.64	429.5	6.3	
14.15	29.04	356.5	6.41	
14.2	30.28	475.8	5.92	
14.25	29.53	510.2	6.3	
14.3	28.44	515.8	6.33	
14.35	26.7	524.2	6.24	
14.4	26.17	558	6.49	
14.45	26.7	528.9	6.58	
14.5	28.27	470.7	6.25	60.95
14.55	29.44	474.8	5.91	
14.6	29.38	543.3	6.07	
14.65	31.72	605.7	6.47	
14.7	33.61	-32768	6.41	
14.75	34.92	-32768	6.14	
